{
    "wavelength": [
        1430.0,
        1430.251,
        1430.502,
        1430.752,
        1431.003,
        1431.254,
        1431.505,
        1431.756,
        1432.006,
        1432.257,
        1432.508,
        1432.759,
        1433.009,
        1433.26,
        1433.511,
        1433.762,
        1434.013,
        1434.263,
        1434.514,
        1434.765,
        1435.016,
        1435.267,
        1435.517,
        1435.768,
        1436.019,
        1436.27,
        1436.52,
        1436.771,
        1437.022,
        1437.273,
        1437.524,
        1437.774,
        1438.025,
        1438.276,
        1438.527,
        1438.777,
        1439.028,
        1439.279,
        1439.53,
        1439.781,
        1440.031,
        1440.282,
        1440.533,
        1440.784,
        1441.035,
        1441.285,
        1441.536,
        1441.787,
        1442.038,
        1442.288,
        1442.539,
        1442.79,
        1443.041,
        1443.292,
        1443.542,
        1443.793,
        1444.044,
        1444.295,
        1444.546,
        1444.796,
        1445.047,
        1445.298,
        1445.549,
        1445.799,
        1446.05,
        1446.301,
        1446.552,
        1446.803,
        1447.053,
        1447.304,
        1447.555,
        1447.806,
        1448.056,
        1448.307,
        1448.558,
        1448.809,
        1449.06,
        1449.31,
        1449.561,
        1449.812,
        1450.063,
        1450.314,
        1450.564,
        1450.815,
        1451.066,
        1451.317,
        1451.567,
        1451.818,
        1452.069,
        1452.32,
        1452.571,
        1452.821,
        1453.072,
        1453.323,
        1453.574,
        1453.825,
        1454.075,
        1454.326,
        1454.577,
        1454.828,
        1455.078,
        1455.329,
        1455.58,
        1455.831,
        1456.082,
        1456.332,
        1456.583,
        1456.834,
        1457.085,
        1457.335,
        1457.586,
        1457.837,
        1458.088,
        1458.339,
        1458.589,
        1458.84,
        1459.091,
        1459.342,
        1459.593,
        1459.843,
        1460.094,
        1460.345,
        1460.596,
        1460.846,
        1461.097,
        1461.348,
        1461.599,
        1461.85,
        1462.1,
        1462.351,
        1462.602,
        1462.853,
        1463.103,
        1463.354,
        1463.605,
        1463.856,
        1464.107,
        1464.357,
        1464.608,
        1464.859,
        1465.11,
        1465.361,
        1465.611,
        1465.862,
        1466.113,
        1466.364,
        1466.614,
        1466.865,
        1467.116,
        1467.367,
        1467.618,
        1467.868,
        1468.119,
        1468.37,
        1468.621,
        1468.872,
        1469.122,
        1469.373,
        1469.624,
        1469.875,
        1470.125,
        1470.376,
        1470.627,
        1470.878,
        1471.129,
        1471.379,
        1471.63,
        1471.881,
        1472.132,
        1472.382,
        1472.633,
        1472.884,
        1473.135,
        1473.386,
        1473.636,
        1473.887,
        1474.138,
        1474.389,
        1474.64,
        1474.89,
        1475.141,
        1475.392,
        1475.643,
        1475.893,
        1476.144,
        1476.395,
        1476.646,
        1476.897,
        1477.147,
        1477.398,
        1477.649,
        1477.9,
        1478.151,
        1478.401,
        1478.652,
        1478.903,
        1479.154,
        1479.404,
        1479.655,
        1479.906,
        1480.157,
        1480.408,
        1480.658,
        1480.909,
        1481.16,
        1481.411,
        1481.661,
        1481.912,
        1482.163,
        1482.414,
        1482.665,
        1482.915,
        1483.166,
        1483.417,
        1483.668,
        1483.919,
        1484.169,
        1484.42,
        1484.671,
        1484.922,
        1485.172,
        1485.423,
        1485.674,
        1485.925,
        1486.176,
        1486.426,
        1486.677,
        1486.928,
        1487.179,
        1487.43,
        1487.68,
        1487.931,
        1488.182,
        1488.433,
        1488.683,
        1488.934,
        1489.185,
        1489.436,
        1489.687,
        1489.937,
        1490.188,
        1490.439,
        1490.69,
        1490.94,
        1491.191,
        1491.442,
        1491.693,
        1491.944,
        1492.194,
        1492.445,
        1492.696,
        1492.947,
        1493.198,
        1493.448,
        1493.699,
        1493.95,
        1494.201,
        1494.451,
        1494.702,
        1494.953,
        1495.204,
        1495.455,
        1495.705,
        1495.956,
        1496.207,
        1496.458,
        1496.709,
        1496.959,
        1497.21,
        1497.461,
        1497.712,
        1497.962,
        1498.213,
        1498.464,
        1498.715,
        1498.966,
        1499.216,
        1499.467,
        1499.718,
        1499.969,
        1500.219,
        1500.47,
        1500.721,
        1500.972,
        1501.223,
        1501.473,
        1501.724,
        1501.975,
        1502.226,
        1502.477,
        1502.727,
        1502.978,
        1503.229,
        1503.48,
        1503.73,
        1503.981,
        1504.232,
        1504.483,
        1504.734,
        1504.984,
        1505.235,
        1505.486,
        1505.737,
        1505.988,
        1506.238,
        1506.489,
        1506.74,
        1506.991,
        1507.241,
        1507.492,
        1507.743,
        1507.994,
        1508.245,
        1508.495,
        1508.746,
        1508.997,
        1509.248,
        1509.498,
        1509.749,
        1510.0
    ],
    "trace": [
        -80.34,
        -80.13,
        -80.02,
        -79.99,
        -79.45,
        -79.16,
        -78.92,
        -78.19,
        -77.93,
        -77.79,
        -77.02,
        -76.7,
        -76.25,
        -75.9,
        -75.6,
        -75.25,
        -75.01,
        -74.61,
        -74.34,
        -74.16,
        -73.87,
        -73.77,
        -73.52,
        -73.47,
        -73.41,
        -73.21,
        -73.21,
        -73.19,
        -73.14,
        -73.1,
        -73.07,
        -73.15,
        -73.04,
        -73.0,
        -73.11,
        -72.94,
        -72.94,
        -73.02,
        -72.97,
        -73.12,
        -73.04,
        -73.11,
        -73.24,
        -73.29,
        -73.47,
        -73.47,
        -73.77,
        -74.1,
        -74.28,
        -74.59,
        -74.92,
        -75.51,
        -75.87,
        -76.46,
        -77.01,
        -77.33,
        -77.86,
        -78.26,
        -78.99,
        -79.39,
        -79.65,
        -80.08,
        -80.74,
        -80.58,
        -80.57,
        -80.61,
        -81.31,
        -81.18,
        -80.98,
        -81.13,
        -81.2,
        -81.7,
        -80.99,
        -81.44,
        -81.15,
        -81.34,
        -81.41,
        -81.6,
        -81.93,
        -81.67,
        -81.54,
        -81.81,
        -81.27,
        -81.64,
        -81.53,
        -81.29,
        -81.34,
        -81.38,
        -81.5,
        -81.39,
        -81.78,
        -81.69,
        -81.82,
        -81.36,
        -81.27,
        -81.38,
        -81.63,
        -81.47,
        -81.37,
        -81.27,
        -81.6,
        -81.93,
        -81.44,
        -81.46,
        -81.43,
        -81.39,
        -81.75,
        -81.68,
        -81.73,
        -81.39,
        -81.87,
        -81.12,
        -81.11,
        -80.47,
        -80.81,
        -81.27,
        -80.61,
        -80.26,
        -79.97,
        -79.38,
        -79.37,
        -79.13,
        -78.6,
        -78.21,
        -77.73,
        -77.43,
        -77.01,
        -76.72,
        -76.17,
        -75.92,
        -75.58,
        -75.27,
        -75.03,
        -74.73,
        -74.33,
        -74.19,
        -73.89,
        -73.69,
        -73.45,
        -73.4,
        -73.2,
        -72.87,
        -72.73,
        -72.62,
        -72.49,
        -72.43,
        -72.27,
        -72.21,
        -72.12,
        -71.96,
        -71.99,
        -71.89,
        -71.91,
        -71.95,
        -71.84,
        -71.86,
        -71.92,
        -71.85,
        -71.87,
        -71.83,
        -71.94,
        -72.09,
        -72.1,
        -72.35,
        -72.47,
        -72.55,
        -72.8,
        -72.78,
        -73.12,
        -73.27,
        -73.48,
        -73.68,
        -73.89,
        -74.21,
        -74.43,
        -74.85,
        -75.39,
        -76.14,
        -77.04,
        -78.04,
        -78.73,
        -79.47,
        -80.22,
        -80.96,
        -81.03,
        -81.54,
        -81.52,
        -81.59,
        -81.36,
        -81.96,
        -81.67,
        -81.44,
        -81.71,
        -81.35,
        -81.04,
        -81.13,
        -81.8,
        -81.29,
        -81.71,
        -81.71,
        -81.44,
        -81.91,
        -81.46,
        -81.61,
        -81.62,
        -81.76,
        -81.86,
        -82.13,
        -81.52,
        -81.68,
        -81.27,
        -81.4,
        -81.63,
        -81.15,
        -81.29,
        -81.09,
        -81.01,
        -80.43,
        -80.43,
        -80.25,
        -79.48,
        -79.46,
        -79.03,
        -78.67,
        -78.05,
        -77.87,
        -77.44,
        -77.2,
        -76.76,
        -76.29,
        -75.93,
        -75.65,
        -75.32,
        -75.16,
        -74.76,
        -74.49,
        -74.31,
        -74.06,
        -73.81,
        -73.58,
        -73.41,
        -73.24,
        -73.09,
        -72.89,
        -72.86,
        -72.7,
        -72.64,
        -72.58,
        -72.52,
        -72.49,
        -72.46,
        -72.44,
        -72.42,
        -72.4,
        -72.5,
        -72.43,
        -72.36,
        -72.32,
        -72.32,
        -72.28,
        -72.3,
        -72.37,
        -72.4,
        -72.4,
        -72.43,
        -72.55,
        -72.67,
        -72.71,
        -72.92,
        -73.12,
        -73.27,
        -73.53,
        -73.78,
        -74.05,
        -74.46,
        -74.71,
        -74.97,
        -75.55,
        -75.92,
        -76.02,
        -76.77,
        -77.34,
        -78.04,
        -78.63,
        -79.11,
        -79.82,
        -80.33,
        -80.44,
        -81.05,
        -80.98,
        -80.49,
        -81.32,
        -81.56,
        -81.48,
        -81.5,
        -81.09,
        -81.05,
        -81.1,
        -81.18,
        -81.01,
        -81.32,
        -81.04,
        -81.25,
        -81.1,
        -81.65,
        -81.31,
        -81.38,
        -81.34,
        -81.21,
        -81.25,
        -81.72,
        -81.17,
        -81.09,
        -81.06,
        -81.26,
        -81.06,
        -81.55,
        -81.43,
        -81.72,
        -81.68
    ]
}